          Index              t             Ts          Value
                           [s]           [°C]           [mW]
              0              0       -50.0001              0
              1              1       -49.4998              0
              2              2       -49.0049              0
              3              3       -48.5173              0
              4              4       -48.0393              0
              5              5       -47.5576              0
              6              6       -47.0703              0
              7              7       -46.5795              0
              8              8        -46.084              0
              9              9       -45.5874              0
             10             10         -45.09              0
             11             11       -44.5921              0
             12             12       -44.0935              0
             13             13       -43.5946              0
             14             14       -43.0956              0
             15             15       -42.5965              0
             16             16       -42.0975              0
             17             17       -41.5985              0
             18             18       -41.0996              0
             19             19       -40.6008              0
             20             20       -40.1022              0
             21             21       -39.6037              0
             22             22       -39.1053              0
             23             23       -38.6068              0
             24             24       -38.1084              0
             25             25       -37.6106              0
             26             26       -37.1132              0
             27             27       -36.6163              0
             28             28       -36.1204              0
             29             29       -35.6252              0
             30             30       -35.1311              0
             31             31       -34.6378              0
             32             32       -34.1465              0
             33             33       -33.6561              0
             34             34       -33.1664              0
             35             35       -32.6769              0
             36             36       -32.1848              0
             37             37         -31.69              0
             38             38       -31.1921              0
             39             39       -30.6922              0
             40             40       -30.1894              0
             41             41       -29.6864              0
             42             42       -29.1834              0
             43             43       -28.6808              0
             44             44       -28.1791              0
             45             45       -27.6779              0
             46             46       -27.1771              0
             47             47       -26.6766              0
             48             48       -26.1764              0
             49             49       -25.6762              0
             50             50       -25.1761              0
             51             51       -24.6759              0
             52             52       -24.1761              0
             53             53       -23.6763              0
             54             54       -23.1766              0
             55             55        -22.677              0
             56             56       -22.1774              0
             57             57        -21.678              0
             58             58       -21.1785              0
             59             59       -20.6791              0
             60             60       -20.1797              0
             61             61       -19.6803              0
             62             62       -19.1808              0
             63             63       -18.6814              0
             64             64        -18.182              0
             65             65       -17.6826              0
             66             66       -17.1832              0
             67             67       -16.6838              0
             68             68       -16.1844              0
             69             69       -15.6851              0
             70             70       -15.1857              0
             71             71       -14.6863              0
             72             72       -14.1869              0
             73             73       -13.6876              0
             74             74       -13.1882              0
             75             75       -12.6888              0
             76             76       -12.1895              0
             77             77       -11.6901              0
             78             78       -11.1908              0
             79             79       -10.6914              0
             80             80       -10.1921              0
             81             81       -9.69272              0
             82             82       -9.19337              0
             83             83       -8.69402              0
             84             84       -8.19467              0
             85             85       -7.69531              0
             86             86       -7.19595              0
             87             87       -6.69659              0
             88             88       -6.19723              0
             89             89       -5.69786              0
             90             90       -5.19848              0
             91             91       -4.69912              0
             92             92       -4.19975              0
             93             93       -3.70038              0
             94             94       -3.20101              0
             95             95       -2.70165              0
             96             96        -2.2023              0
             97             97       -1.70295              0
             98             98       -1.20361              0
             99             99      -0.704281              0
            100            100       -0.20497              0
            101            101       0.294328              0
            102            102       0.793613              0
            103            103        1.29291              0
            104            104         1.7922              0
            105            105        2.29148              0
            106            106        2.79076              0
            107            107        3.29004              0
            108            108        3.78932              0
            109            109        4.28861              0
            110            110         4.7879              0
            111            111        5.28719              0
            112            112        5.78648              0
            113            113        6.28577              0
            114            114        6.78508              0
            115            115        7.28438              0
            116            116        7.78367              0
            117            117        8.28297              0
            118            118        8.78227              0
            119            119        9.28156              0
            120            120        9.78086              0
            121            121        10.2802              0
            122            122        10.7795              0
            123            123        11.2788              0
            124            124        11.7781              0
            125            125        12.2774              0
            126            126        12.7766              0
            127            127        13.2759              0
            128            128        13.7752              0
            129            129        14.2745              0
            130            130        14.7738              0
            131            131        15.2731              0
            132            132        15.7724              0
            133            133        16.2717              0
            134            134         16.771              0
            135            135        17.2702              0
            136            136        17.7695              0
            137            137        18.2688              0
            138            138        18.7681              0
            139            139        19.2674              0
            140            140        19.7666              0
            141            141        20.2659              0
            142            142        20.7652              0
            143            143        21.2644              0
            144            144        21.7637              0
            145            145        22.2629              0
            146            146        22.7622              0
            147            147        23.2614              0
            148            148        23.7607              0
            149            149        24.2599              0
            150            150        24.7591              0
            151            151        25.2584              0
            152            152        25.7576              0
            153            153        26.2568              0
            154            154        26.7561              0
            155            155        27.2553              0
            156            156        27.7545              0
            157            157        28.2538              0
            158            158         28.753              0
            159            159        29.2522              0
            160            160        29.7514              0
            161            161        30.2506              0
            162            162        30.7498              0
            163            163        31.2491              0
            164            164        31.7483              0
            165            165        32.2475              0
            166            166        32.7467              0
            167            167        33.2459              0
            168            168        33.7451              0
            169            169        34.2443              0
            170            170        34.7435              0
            171            171        35.2427              0
            172            172        35.7419              0
            173            173        36.2411              0
            174            174        36.7403              0
            175            175        37.2395              0
            176            176        37.7387              0
            177            177        38.2379              0
            178            178        38.7371              0
            179            179        39.2362              0
            180            180        39.7354              0
            181            181        40.2346              0
            182            182        40.7338              0
            183            183        41.2329              0
            184            184        41.7321              0
            185            185        42.2313              0
            186            186        42.7306              0
            187            187          43.23              0
            188            188        43.7293              0
            189            189        44.2286              0
            190            190        44.7279              0
            191            191        45.2271              0
            192            192        45.7264              0
            193            193        46.2257              0
            194            194        46.7249              0
            195            195        47.2241              0
            196            196        47.7232              0
            197            197        48.2224              0
            198            198        48.7216              0
            199            199        49.2208              0
            200            200        49.7201              0
            201            201        50.2193              0
            202            202        50.7186              0
            203            203        51.2177              0
            204            204         51.717              0
            205            205        52.2162              0
            206            206        52.7154              0
            207            207        53.2146              0
            208            208        53.7138              0
            209            209         54.213              0
            210            210        54.7122              0
            211            211        55.2117              0
            212            212        55.7112              0
            213            213        56.2103              0
            214            214        56.7094              0
            215            215        57.2085              0
            216            216        57.7077              0
            217            217        58.2068              0
            218            218        58.7059              0
            219            219        59.2051              0
            220            220        59.7043              0
            221            221        60.2035              0
            222            222        60.7027              0
            223            223         61.202              0
            224            224        61.7012              0
            225            225        62.2005              0
            226            226        62.6998              0
            227            227        63.1991              0
            228            228        63.6983              0
            229            229        64.1971              0
            230            230        64.6956              0
            231            231        65.1945              0
            232            232        65.6937              0
            233            233        66.1932              0
            234            234        66.6928              0
            235            235        67.1923              0
            236            236        67.6918              0
            237            237        68.1912              0
            238            238        68.6907              0
            239            239        69.1902              0
            240            240        69.6896              0
            241            241         70.189              0
            242            242        70.6883              0
            243            243        71.1876              0
            244            244        71.6869              0
            245            245        72.1862              0
            246            246        72.6855              0
            247            247        73.1848              0
            248            248        73.6841              0
            249            249        74.1834              0
            250            250        74.6827              0
            251            251         75.182              0
            252            252        75.6813              0
            253            253        76.1807              0
            254            254          76.68              0
            255            255        77.1794              0
            256            256        77.6787              0
            257            257        78.1781              0
            258            258        78.6774              0
            259            259        79.1768              0
            260            260        79.6761              0
            261            261        80.1754              0
            262            262        80.6747              0
            263            263        81.1741              0
            264            264        81.6734              0
            265            265        82.1728              0
            266            266        82.6722              0
            267            267        83.1716              0
            268            268         83.671              0
            269            269        84.1704              0
            270            270        84.6699              0
            271            271        85.1693              0
            272            272        85.6688              0
            273            273        86.1683              0
            274            274        86.6679              0
            275            275        87.1675              0
            276            276         87.667              0
            277            277        88.1665              0
            278            278         88.666              0
            279            279        89.1656              0
            280            280        89.6651              0
            281            281        90.1647              0
            282            282        90.6642              0
            283            283        91.1637              0
            284            284        91.6631              0
            285            285        92.1625              0
            286            286        92.6619              0
            287            287        93.1613              0
            288            288        93.6609              0
            289            289        94.1606              0
            290            290        94.6602              0
            291            291        95.1598              0
            292            292        95.6594              0
            293            293         96.159              0
            294            294        96.6586              0
            295            295        97.1582              0
            296            296        97.6577              0
            297            297        98.1573              0
            298            298        98.6569              0
            299            299        99.1564              0
            300            300        99.6561              0
            301            301        100.156              0
            302            302        100.656              0
            303            303        101.155              0
            304            304        101.655              0
            305            305        102.155              0
            306            306        102.655              0
            307            307        103.154              0
            308            308        103.654              0
            309            309        104.154              0
            310            310        104.654              0
            311            311        105.153              0
            312            312        105.653              0
            313            313        106.153              0
            314            314        106.653              0
            315            315        107.153              0
            316            316        107.653              0
            317            317        108.153              0
            318            318        108.652              0
            319            319        109.152              0
            320            320        109.652              0
            321            321        110.152              0
            322            322        110.652              0
            323            323        111.152              0
            324            324        111.652              0
            325            325        112.152              0
            326            326        112.652              0
            327            327        113.153              0
            328            328        113.653              0
            329            329        114.153              0
            330            330        114.653  -8.34465e-005
            331            331        115.153   -0.000453949
            332            332        115.654   -0.000978947
            333            333        116.154   -0.000650406
            334            334        116.654    -0.00068903
            335            335        117.154   -0.000732899
            336            336        117.655   -0.000902653
            337            337        118.155   -0.000359535
            338            338        118.656   -0.000175476
            339            339        119.156    0.000128746
            340            340        119.657    0.000562668
            341            341        120.157    0.000600815
            342            342        120.658     0.00053978
            343            343        121.158     0.00111771
            344            344        121.659     0.00139904
            345            345         122.16     0.00253248
            346            346         122.66     0.00278711
            347            347        123.161      0.0030942
            348            348        123.662     0.00306559
            349            349        124.163     0.00483036
            350            350        124.663     0.00616693
            351            351        125.164     0.00757885
            352            352        125.665      0.0086112
            353            353        126.166      0.0114374
            354            354        126.667      0.0146627
            355            355        127.168      0.0186534
            356            356        127.669      0.0231485
            357            357        128.171      0.0293264
            358            358        128.672      0.0364656
            359            359        129.173      0.0451155
            360            360        129.675      0.0545459
            361            361        130.176       0.066143
            362            362        130.678       0.077189
            363            363         131.18      0.0883112
            364            364        131.681      0.0991273
            365            365        132.183       0.111983
            366            366        132.685       0.125657
            367            367        133.187       0.140696
            368            368        133.689       0.156534
            369            369        134.191       0.174328
            370            370        134.693       0.192604
            371            371        135.195       0.212148
            372            372        135.698       0.232622
            373            373          136.2       0.256183
            374            374        136.703       0.280658
            375            375        137.205       0.306714
            376            376        137.708        0.33448
            377            377        138.211       0.363368
            378            378        138.714        0.39582
            379            379        139.217        0.42957
            380            380         139.72       0.464952
            381            381        140.223       0.500943
            382            382        140.727       0.539217
            383            383         141.23       0.578862
            384            384        141.734       0.620325
            385            385        142.237        0.66259
            386            386        142.741       0.710484
            387            387        143.245       0.758657
            388            388        143.749       0.808705
            389            389        144.253       0.861834
            390            390        144.758       0.918699
            391            391        145.262       0.978565
            392            392        145.767        1.04058
            393            393        146.272        1.10409
            394            394        146.777        1.17169
            395            395        147.282        1.24315
            396            396        147.788        1.31874
            397            397        148.293         1.3973
            398            398        148.799        1.47962
            399            399        149.305         1.5655
            400            400        149.811        1.65513
            401            401        150.317         1.7472
            402            402        150.824        1.84734
            403            403        151.331        1.95183
            404            404        151.838        2.06064
            405            405        152.346        2.17071
            406            406        152.853        2.28995
            407            407        153.361        2.41306
            408            408        153.869        2.54134
            409            409        154.378        2.67324
            410            410        154.886        2.81313
            411            411        155.395        2.95751
            412            412        155.905        3.10765
            413            413        156.414        3.26098
            414            414        156.924        3.42418
            415            415        157.434        3.59319
            416            416        157.945        3.76962
            417            417        158.456        3.95119
            418            418        158.967        4.14492
            419            419        159.479        4.34392
            420            420        159.991        4.54989
            421            421        160.504        4.76129
            422            422        161.017        4.98575
            423            423         161.53        5.21652
            424            424        162.044        5.45527
            425            425        162.558        5.69946
            426            426        163.073        5.95961
            427            427        163.588        6.22742
            428            428        164.103        6.50502
            429            429         164.62        6.78956
            430            430        165.136         7.0903
            431            431        165.654        7.40026
            432            432        166.171        7.72133
            433            433         166.69         8.0503
            434            434        167.209        8.39841
            435            435        167.728        8.75601
            436            436        168.249         9.1254
            437            437        168.769        9.50309
            438            438        169.291        9.90176
            439            439        169.813        10.3116
            440            440        170.336        10.7351
            441            441        170.859        11.1684
            442            442        171.384        11.6248
            443            443        171.909        12.0929
            444            444        172.435        12.5752
            445            445        172.961        13.0732
            446            446        173.488        13.5816
            447            447        174.017        14.1156
            448            448        174.546        14.6633
            449            449        175.075        15.2268
            450            450        175.606        15.8016
            451            451        176.137        16.4036
            452            452         176.67        17.0193
            453            453        177.203         17.651
            454            454        177.736        18.2934
            455            455        178.271        18.9641
            456            456        178.807        19.6484
            457            457        179.344        20.3483
            458            458        179.881        21.0589
            459            459        180.419         21.796
            460            460        180.958        22.5457
            461            461        181.498        23.3098
            462            462        182.038        24.0839
            463            463        182.579        24.8808
            464            464        183.121        25.6883
            465            465        183.663        26.5079
            466            466        184.206        27.3355
            467            467         184.75        28.1786
            468            468        185.294        29.0285
            469            469        185.838        29.8873
            470            470        186.383        30.7541
            471            471        186.928        31.6286
            472            472        187.473         32.503
            473            473        188.019        33.3771
            474            474        188.564        34.2511
            475            475        189.109         35.122
            476            476        189.654        35.9877
            477            477        190.199        36.8457
            478            478        190.743        37.6976
            479            479        191.286        38.5299
            480            480        191.829         39.348
            481            481        192.371        40.1479
            482            482        192.912        40.9345
            483            483        193.452        41.6828
            484            484         193.99        42.4077
            485            485        194.527        43.1037
            486            486        195.063        43.7785
            487            487        195.597        44.3971
            488            488        196.128        44.9844
            489            489        196.658        45.5327
            490            490        197.187        46.0531
            491            491        197.712        46.5031
            492            492        198.236        46.9142
            493            493        198.757        47.2787
            494            494        199.276        47.6109
            495            495        199.792        47.8635
            496            496        200.306        48.0747
            497            497        200.817        48.2363
            498            498        201.327        48.3637
            499            499        201.833        48.4067
            500            500        202.337        48.4069
            501            501        202.838         48.358
            502            502        203.338        48.2759
            503            503        203.833        48.1148
            504            504        204.327        47.9139
            505            505        204.819        47.6676
            506            506        205.309        47.3907
            507            507        205.796        47.0449
            508            508        206.281         46.665
            509            509        206.765        46.2467
            510            510        207.247        45.8029
            511            511        207.726        45.3024
            512            512        208.204        44.7751
            513            513        208.681        44.2182
            514            514        209.156        43.6328
            515            515        209.631        43.0298
            516            516        210.103        42.3895
            517            517        210.575        41.7318
            518            518        211.046        41.0558
            519            519        211.516        40.3683
            520            520        211.985        39.6554
            521            521        212.453        38.9328
            522            522        212.921        38.1996
            523            523        213.389        37.4595
            524            524        213.856        36.7073
            525            525        214.323        35.9506
            526            526        214.789        35.1896
            527            527        215.255        34.4271
            528            528        215.722        33.6619
            529            529        216.188        32.8975
            530            530        216.654        32.1336
            531            531        217.121        31.3709
            532            532        217.587        30.6119
            533            533        218.054        29.8556
            534            534        218.521        29.1054
            535            535        218.988        28.3594
            536            536        219.455        27.6226
            537            537        219.923        26.8918
            538            538        220.391        26.1662
            539            539        220.859        25.4443
            540            540        221.328        24.7425
            541            541        221.798        24.0485
            542            542        222.267        23.3636
            543            543        222.738        22.6853
            544            544        223.209        22.0241
            545            545         223.68         21.372
            546            546        224.152        20.7309
            547            547        224.624        20.0973
            548            548        225.098        19.4908
            549            549        225.572          18.89
            550            550        226.046        18.2939
            551            551         226.52        17.7042
            552            552        226.995        17.1345
            553            553        227.471        16.5755
            554            554        227.948        16.0282
            555            555        228.424        15.4883
            556            556        228.902        14.9665
            557            557         229.38         14.455
            558            558        229.859        13.9551
            559            559        230.338        13.4631
            560            560        230.817        12.9894
            561            561        231.298        12.5246
            562            562        231.778          12.07
            563            563        232.259        11.6224
            564            564        232.741        11.1908
            565            565        233.224        10.7678
            566            566        233.706        10.3545
            567            567        234.189        9.94765
            568            568        234.673        9.55743
            569            569        235.157        9.17501
            570            570        235.642        8.80206
            571            571        236.127        8.43635
            572            572        236.612        8.08467
            573            573        237.098        7.74078
            574            574        237.585        7.40652
            575            575        238.071        7.07923
            576            576        238.559        6.76603
            577            577        239.046        6.46027
            578            578        239.535        6.16273
            579            579        240.023        5.87158
            580            580        240.512        5.59275
            581            581        241.001        5.32118
            582            582        241.491        5.05767
            583            583        241.981        4.80205
            584            584        242.472        4.55178
            585            585        242.963        4.31479
            586            586        243.454        4.08444
            587            587        243.945        3.86163
            588            588        244.437        3.64376
            589            589         244.93        3.43763
            590            590        245.422        3.23746
            591            591        245.915        3.04416
            592            592        246.409        2.85557
            593            593        246.902        2.67774
            594            594        247.396        2.50519
            595            595        247.891        2.33913
            596            596        248.385        2.17773
            597            597         248.88        2.02597
            598            598        249.375        1.87882
            599            599         249.87        1.73722
            600            600        250.366        1.60035
            601            601        250.862        1.47348
            602            602        251.358        1.35123
            603            603        251.855        1.23429
            604            604        252.352        1.12119
            605            605        252.849        1.01804
            606            606        253.346       0.919408
            607            607        253.844       0.825652
            608            608        254.342       0.735231
            609            609         254.84       0.653637
            610            610        255.338        0.57698
            611            611        255.837       0.505152
            612            612        256.335       0.436901
            613            613        256.834       0.376978
            614            614        257.334       0.321308
            615            615        257.833       0.269683
            616            616        258.333       0.219649
            617            617        258.833       0.177223
            618            618        259.333       0.137859
            619            619        259.833        0.10392
            620            620        260.333      0.0724106
            621            621        260.834      0.0460157
            622            622        261.335      0.0244856
            623            623        261.836     0.00654888
            624            624        262.337    -0.00884151
            625            625        262.838     -0.0192566
            626            626        263.339     -0.0274582
            627            627        263.841     -0.0329943
            628            628        264.342     -0.0366211
            629            629        264.844     -0.0367446
            630            630        265.346        -0.0355
            631            631        265.848     -0.0332465
            632            632         266.35     -0.0298805
            633            633        266.851     -0.0254583
            634            634        267.353     -0.0210042
            635            635        267.855     -0.0156894
            636            636        268.357    -0.00967836
            637            637        268.859    -0.00516224
            638            638         269.36    -0.00147247
            639            639        269.862              0
            640            640        270.363              0
            641            641        270.865              0
            642            642        271.366              0
            643            643        271.867              0
            644            644        272.367              0
            645            645        272.868              0
            646            646        273.367              0
            647            647        273.867              0
            648            648        274.366              0
            649            649        274.864              0
            650            650        275.362              0
            651            651        275.859              0
            652            652        276.356              0
            653            653        276.852              0
            654            654        277.346              0
            655            655         277.84              0
            656            656        278.333              0
            657            657        278.825              0
            658            658        279.316              0
            659            659        279.805              0
            660            660        280.293              0
            661            661         280.78              0
            662            662        281.266              0
            663            663        281.749              0
            664            664        282.232              0
            665            665        282.714              0
            666            666        283.193              0
            667            667         283.67              0
            668            668        284.146              0
            669            669        284.621              0
            670            670        285.093              0
            671            671        285.564              0
            672            672        286.034              0
            673            673        286.504              0
            674            674        286.974              0
            675            675        287.445              0
            676            676        287.917              0
            677            677        288.391              0
            678            678        288.868              0
            679            679        289.348              0
            680            680         289.83              0
            681            681        290.315              0
            682            682        290.805              0
            683            683        291.297              0
            684            684        291.791              0
            685            685        292.288              0
            686            686        292.788              0
            687            687        293.289              0
            688            688        293.793              0
            689            689        294.298              0
            690            690        294.805              0
            691            691        295.313              0
            692            692        295.822              0
            693            693        296.332              0
            694            694        296.844              0
            695            695        297.356              0
            696            696        297.869              0
            697            697        298.383              0
            698            698        298.898              0
            699            699        299.413              0
            700            700         299.93              0
            701            701        300.446              0
            702            702        300.964              0
            703            703        301.482              0
            704            704            302              0
            705            705        302.519              0
            706            706        303.039              0
            707            707         303.56              0
            708            708         304.08              0
            709            709        304.602              0
            710            710        305.123              0
            711            711        305.645              0
            712            712        306.168              0
            713            713        306.691              0
            714            714        307.214              0
            715            715        307.737              0
            716            716        308.261              0
            717            717        308.785              0
            718            718        309.309              0
            719            719        309.834              0
            720            720        310.358              0
            721            721        310.883              0
            722            722        311.407              0
            723            723        311.931              0
            724            724        312.454              0
            725            725        312.978              0
            726            726        313.501              0
            727            727        314.023              0
            728            728        314.545              0
            729            729        315.066              0
            730            730        315.586              0
            731            731        316.106              0
            732            732        316.625              0
            733            733        317.142              0
            734            734        317.658              0
            735            735        318.163              0
            736            736        318.664              0
            737            737        319.166              0
            738            738        319.669              0
            739            739        320.166              0
            740            740        320.659              0
            741            741        321.145              0
            742            742        321.618              0
            743            743        322.066              0
            744            744        322.518              0
            745            745        322.962              0
            746            746        323.395              0
            747            747        323.827              0
            748            748        324.274              0
            749            749        324.743              0
            750            750        325.221              0
            751            751        325.726              0
            752            752        326.239              0
            753            753        326.757              0
            754            754        327.277              0
            755            755          327.8              0
            756            756        328.322              0
            757            757        328.844              0
            758            758        329.365              0
            759            759        329.883              0
            760            760          330.4              0
            761            761        330.916              0
            762            762        331.433              0
            763            763         331.95              0
            764            764        332.465              0
            765            765        332.979              0
            766            766        333.492              0
            767            767        334.004              0
            768            768        334.515              0
            769            769        335.025              0
            770            770        335.534              0
            771            771        336.044              0
            772            772        336.553              0
            773            773        337.061              0
            774            774        337.569              0
            775            775        338.076              0
            776            776        338.583              0
            777            777        339.089              0
            778            778        339.594              0
            779            779        340.098              0
            780            780        340.602              0
            781            781        341.105              0
            782            782        341.608              0
            783            783         342.11              0
            784            784        342.612              0
            785            785        343.113              0
            786            786        343.613              0
            787            787        344.112              0
            788            788        344.611              0
            789            789        345.109              0
            790            790        345.602              0
            791            791        346.087              0
            792            792         346.57              0
            793            793        347.053              0
            794            794        347.527              0
            795            795        347.996              0
            796            796        348.471              0
            797            797        348.955              0
            798            798        349.446              0
            799            799         349.94              0
            800            800        350.435              0